#                                                          
# SPHERE/ZIMPOL VBB filter transmission                    
#                                                          
# Updated with final values on 2015-04-16 by Julien Milli  
# For any information, please contact <jmillin@eso.org>    
#                                                          
# wavelength   VBB                                         
#                                                          
      400.000      0.00000
      401.000      0.00000
      402.000      0.00000
      403.000      0.00000
      404.000      0.00000
      405.000      0.00000
      406.000      0.00000
      407.000      0.00000
      408.000      0.00000
      409.000      0.00000
      410.000      0.00000
      411.000      0.00000
      412.000      0.00000
      413.000      0.00000
      414.000      0.00000
      415.000      0.00000
      416.000      0.00000
      417.000      0.00000
      418.000      0.00000
      419.000      0.00000
      420.000      0.00000
      421.000      0.00000
      422.000      0.00000
      423.000      0.00000
      424.000      0.00000
      425.000      0.00000
      426.000      0.00000
      427.000      0.00000
      428.000      0.00000
      429.000      0.00000
      430.000      0.00000
      431.000      0.00000
      432.000      0.00000
      433.000      0.00000
      434.000      0.00000
      435.000      0.00000
      436.000      0.00000
      437.000      0.00000
      438.000      0.00000
      439.000      0.00000
      440.000      0.00000
      441.000      0.00000
      442.000      0.00000
      443.000      0.00000
      444.000      0.00000
      445.000      0.00000
      446.000      0.00000
      447.000      0.00000
      448.000      0.00000
      449.000      0.00000
      450.000      0.00000
      451.000      0.00000
      452.000      0.00000
      453.000      0.00000
      454.000      0.00000
      455.000      0.00000
      456.000      0.00000
      457.000      0.00000
      458.000      0.00000
      459.000      0.00000
      460.000      0.00000
      461.000      0.00000
      462.000      0.00000
      463.000      0.00000
      464.000      0.00000
      465.000      0.00000
      466.000      0.00000
      467.000      0.00000
      468.000      0.00000
      469.000      0.00000
      470.000      0.00000
      471.000      0.00000
      472.000      0.00000
      473.000      0.00000
      474.000      0.00000
      475.000      0.00000
      476.000      0.00000
      477.000      0.00000
      478.000      0.00000
      479.000      0.00000
      480.000      0.00000
      481.000      0.00000
      482.000      0.00000
      483.000      0.00000
      484.000      0.00000
      485.000      0.00000
      486.000      0.00000
      487.000      0.00000
      488.000      0.00000
      489.000      0.00000
      490.000      0.00000
      491.000      0.00000
      492.000      0.00000
      493.000      0.00000
      494.000      0.00000
      495.000      0.00000
      496.000      0.00000
      497.000      0.00000
      498.000      0.00000
      499.000      0.00000
      500.000      0.00000
      501.000      0.00000
      502.000      0.00000
      503.000      0.00000
      504.000      0.00000
      505.000      0.00000
      506.000      0.00000
      507.000      0.00000
      508.000      0.00000
      509.000      0.00000
      510.000      0.00000
      511.000      0.00000
      512.000      0.00000
      513.000      0.00000
      514.000      0.00000
      515.000      0.00000
      516.000      0.00000
      517.000      0.00000
      518.000      0.00000
      519.000      0.00000
      520.000      0.00000
      521.000      0.00000
      522.000      0.00000
      523.000      0.00000
      524.000      0.00000
      525.000      0.00000
      526.000      0.00000
      527.000      0.00000
      528.000      0.00000
      529.000      0.00000
      530.000      0.00000
      531.000      0.00000
      532.000      0.00000
      533.000      0.00000
      534.000      0.00000
      535.000      0.00000
      536.000      0.00000
      537.000      0.00000
      538.000      0.00000
      539.000      0.00000
      540.000      0.00000
      541.000      0.00000
      542.000      0.00000
      543.000      0.00000
      544.000      0.00000
      545.000      0.00000
      546.000      0.00000
      547.000      0.00000
      548.000      0.00000
      549.000      0.00000
      550.000      0.00000
      551.000      0.00000
      552.000      0.00000
      553.000      0.00000
      554.000      0.00000
      555.000      0.00000
      556.000      0.00000
      557.000      0.00000
      558.000      0.00000
      559.000      0.00000
      560.000      0.00000
      561.000      0.00000
      562.000      0.00000
      563.000      0.00000
      564.000      0.00000
      565.000      0.00000
      566.000      0.00000
      567.000      0.00000
      568.000      0.00000
      569.000      0.00000
      570.000      0.00000
      571.000   0.00100000
      572.000   0.00200000
      573.000   0.00300000
      574.000   0.00400000
      575.000   0.00500000
      576.000   0.00600000
      577.000   0.00700000
      578.000   0.00800000
      579.000   0.00900000
      580.000    0.0100000
      581.000    0.0550000
      582.000     0.100000
      583.000     0.145000
      584.000     0.190000
      585.000     0.235000
      586.000     0.280000
      587.000     0.325000
      588.000     0.370000
      589.000     0.415000
      590.000     0.460000
      591.000     0.512000
      592.000     0.564000
      593.000     0.616000
      594.000     0.668000
      595.000     0.720000
      596.000     0.772000
      597.000     0.824000
      598.000     0.876000
      599.000     0.928000
      600.000     0.980000
      601.000     0.981000
      602.000     0.982000
      603.000     0.983000
      604.000     0.984000
      605.000     0.985000
      606.000     0.986000
      607.000     0.987000
      608.000     0.988000
      609.000     0.989000
      610.000     0.990000
      611.000     0.990000
      612.000     0.990000
      613.000     0.990000
      614.000     0.990000
      615.000     0.990000
      616.000     0.990000
      617.000     0.990000
      618.000     0.990000
      619.000     0.990000
      620.000     0.990000
      621.000     0.989000
      622.000     0.988000
      623.000     0.987000
      624.000     0.986000
      625.000     0.985000
      626.000     0.984000
      627.000     0.983000
      628.000     0.982000
      629.000     0.981000
      630.000     0.980000
      631.000     0.981000
      632.000     0.982000
      633.000     0.983000
      634.000     0.984000
      635.000     0.985000
      636.000     0.986000
      637.000     0.987000
      638.000     0.988000
      639.000     0.989000
      640.000     0.990000
      641.000     0.990000
      642.000     0.990000
      643.000     0.990000
      644.000     0.990000
      645.000     0.990000
      646.000     0.990000
      647.000     0.990000
      648.000     0.990000
      649.000     0.990000
      650.000     0.990000
      651.000     0.990000
      652.000     0.990000
      653.000     0.990000
      654.000     0.990000
      655.000     0.990000
      656.000     0.990000
      657.000     0.990000
      658.000     0.990000
      659.000     0.990000
      660.000     0.990000
      661.000     0.990000
      662.000     0.990000
      663.000     0.990000
      664.000     0.990000
      665.000     0.990000
      666.000     0.990000
      667.000     0.990000
      668.000     0.990000
      669.000     0.990000
      670.000     0.990000
      671.000     0.990000
      672.000     0.990000
      673.000     0.990000
      674.000     0.990000
      675.000     0.990000
      676.000     0.990000
      677.000     0.990000
      678.000     0.990000
      679.000     0.990000
      680.000     0.990000
      681.000     0.990000
      682.000     0.990000
      683.000     0.990000
      684.000     0.990000
      685.000     0.990000
      686.000     0.990000
      687.000     0.990000
      688.000     0.990000
      689.000     0.990000
      690.000     0.990000
      691.000     0.990000
      692.000     0.990000
      693.000     0.990000
      694.000     0.990000
      695.000     0.990000
      696.000     0.990000
      697.000     0.990000
      698.000     0.990000
      699.000     0.990000
      700.000     0.990000
      701.000     0.991000
      702.000     0.992000
      703.000     0.993000
      704.000     0.994000
      705.000     0.995000
      706.000     0.996000
      707.000     0.997000
      708.000     0.998000
      709.000     0.999000
      710.000      1.00000
      711.000     0.999000
      712.000     0.998000
      713.000     0.997000
      714.000     0.996000
      715.000     0.995000
      716.000     0.994000
      717.000     0.993000
      718.000     0.992000
      719.000     0.991000
      720.000     0.990000
      721.000     0.990000
      722.000     0.990000
      723.000     0.990000
      724.000     0.990000
      725.000     0.990000
      726.000     0.990000
      727.000     0.990000
      728.000     0.990000
      729.000     0.990000
      730.000     0.990000
      731.000     0.990000
      732.000     0.990000
      733.000     0.990000
      734.000     0.990000
      735.000     0.990000
      736.000     0.990000
      737.000     0.990000
      738.000     0.990000
      739.000     0.990000
      740.000     0.990000
      741.000     0.990000
      742.000     0.990000
      743.000     0.990000
      744.000     0.990000
      745.000     0.990000
      746.000     0.990000
      747.000     0.990000
      748.000     0.990000
      749.000     0.990000
      750.000     0.990000
      751.000     0.990000
      752.000     0.990000
      753.000     0.990000
      754.000     0.990000
      755.000     0.990000
      756.000     0.990000
      757.000     0.990000
      758.000     0.990000
      759.000     0.990000
      760.000     0.990000
      761.000     0.991000
      762.000     0.992000
      763.000     0.993000
      764.000     0.994000
      765.000     0.995000
      766.000     0.996000
      767.000     0.997000
      768.000     0.998000
      769.000     0.999000
      770.000      1.00000
      771.000     0.998000
      772.000     0.996000
      773.000     0.994000
      774.000     0.992000
      775.000     0.990000
      776.000     0.988000
      777.000     0.986000
      778.000     0.984000
      779.000     0.982000
      780.000     0.980000
      781.000     0.981000
      782.000     0.982000
      783.000     0.983000
      784.000     0.984000
      785.000     0.985000
      786.000     0.986000
      787.000     0.987000
      788.000     0.988000
      789.000     0.989000
      790.000     0.990000
      791.000     0.990000
      792.000     0.990000
      793.000     0.990000
      794.000     0.990000
      795.000     0.990000
      796.000     0.990000
      797.000     0.990000
      798.000     0.990000
      799.000     0.990000
      800.000     0.990000
      801.000     0.990000
      802.000     0.990000
      803.000     0.990000
      804.000     0.990000
      805.000     0.990000
      806.000     0.990000
      807.000     0.990000
      808.000     0.990000
      809.000     0.990000
      810.000     0.990000
      811.000     0.991000
      812.000     0.992000
      813.000     0.993000
      814.000     0.994000
      815.000     0.995000
      816.000     0.996000
      817.000     0.997000
      818.000     0.998000
      819.000     0.999000
      820.000      1.00000
      821.000     0.999000
      822.000     0.998000
      823.000     0.997000
      824.000     0.996000
      825.000     0.995000
      826.000     0.994000
      827.000     0.993000
      828.000     0.992000
      829.000     0.991000
      830.000     0.990000
      831.000     0.990000
      832.000     0.990000
      833.000     0.990000
      834.000     0.990000
      835.000     0.990000
      836.000     0.990000
      837.000     0.990000
      838.000     0.990000
      839.000     0.990000
      840.000     0.990000
      841.000     0.991000
      842.000     0.992000
      843.000     0.993000
      844.000     0.994000
      845.000     0.995000
      846.000     0.996000
      847.000     0.997000
      848.000     0.998000
      849.000     0.999000
      850.000      1.00000
      851.000     0.999000
      852.000     0.998000
      853.000     0.997000
      854.000     0.996000
      855.000     0.995000
      856.000     0.994000
      857.000     0.993000
      858.000     0.992000
      859.000     0.991000
      860.000     0.990000
      861.000     0.990000
      862.000     0.990000
      863.000     0.990000
      864.000     0.990000
      865.000     0.990000
      866.000     0.990000
      867.000     0.990000
      868.000     0.990000
      869.000     0.990000
      870.000     0.990000
      871.000     0.947000
      872.000     0.904000
      873.000     0.861000
      874.000     0.818000
      875.000     0.775000
      876.000     0.732000
      877.000     0.689000
      878.000     0.646000
      879.000     0.603000
      880.000     0.560000
      881.000     0.509000
      882.000     0.458000
      883.000     0.407000
      884.000     0.356000
      885.000     0.305000
      886.000     0.254000
      887.000     0.203000
      888.000     0.152000
      889.000     0.101000
      890.000    0.0500000
      891.000    0.0450000
      892.000    0.0400000
      893.000    0.0350000
      894.000    0.0300000
      895.000    0.0250000
      896.000    0.0200000
      897.000    0.0150000
      898.000    0.0100000
      899.000   0.00500000
      900.000      0.00000
      901.000      0.00000
      902.000      0.00000
      903.000      0.00000
      904.000      0.00000
      905.000      0.00000
      906.000      0.00000
      907.000      0.00000
      908.000      0.00000
      909.000      0.00000
      910.000      0.00000
      911.000      0.00000
      912.000      0.00000
      913.000      0.00000
      914.000      0.00000
      915.000      0.00000
      916.000      0.00000
      917.000      0.00000
      918.000      0.00000
      919.000      0.00000
      920.000      0.00000
      921.000      0.00000
      922.000      0.00000
      923.000      0.00000
      924.000      0.00000
      925.000      0.00000
      926.000      0.00000
      927.000      0.00000
      928.000      0.00000
      929.000      0.00000
      930.000      0.00000
      931.000      0.00000
      932.000      0.00000
      933.000      0.00000
      934.000      0.00000
      935.000      0.00000
      936.000      0.00000
      937.000      0.00000
      938.000      0.00000
      939.000      0.00000
      940.000      0.00000
      941.000      0.00000
      942.000      0.00000
      943.000      0.00000
      944.000      0.00000
      945.000      0.00000
      946.000      0.00000
      947.000      0.00000
      948.000      0.00000
      949.000      0.00000
      950.000      0.00000
      951.000      0.00000
      952.000      0.00000
      953.000      0.00000
      954.000      0.00000
      955.000      0.00000
      956.000      0.00000
      957.000      0.00000
      958.000      0.00000
      959.000      0.00000
      960.000      0.00000
      961.000      0.00000
      962.000      0.00000
      963.000      0.00000
      964.000      0.00000
      965.000      0.00000
      966.000      0.00000
      967.000      0.00000
      968.000      0.00000
      969.000      0.00000
      970.000      0.00000
      971.000      0.00000
      972.000      0.00000
      973.000      0.00000
      974.000      0.00000
      975.000      0.00000
      976.000      0.00000
      977.000      0.00000
      978.000      0.00000
      979.000      0.00000
      980.000      0.00000
      981.000      0.00000
      982.000      0.00000
      983.000      0.00000
      984.000      0.00000
      985.000      0.00000
      986.000      0.00000
      987.000      0.00000
      988.000      0.00000
      989.000      0.00000
      990.000      0.00000
      991.000      0.00000
      992.000      0.00000
      993.000      0.00000
      994.000      0.00000
      995.000      0.00000
      996.000      0.00000
      997.000      0.00000
      998.000      0.00000
      999.000      0.00000
      1000.00      0.00000
      1001.00      0.00000
      1002.00      0.00000
      1003.00      0.00000
      1004.00      0.00000
      1005.00      0.00000
      1006.00      0.00000
      1007.00      0.00000
      1008.00      0.00000
      1009.00      0.00000
      1010.00      0.00000
      1011.00      0.00000
      1012.00      0.00000
      1013.00      0.00000
      1014.00      0.00000
      1015.00      0.00000
      1016.00      0.00000
      1017.00      0.00000
      1018.00      0.00000
      1019.00      0.00000
      1020.00      0.00000
      1021.00      0.00000
      1022.00      0.00000
      1023.00      0.00000
      1024.00      0.00000
      1025.00      0.00000
      1026.00      0.00000
      1027.00      0.00000
      1028.00      0.00000
      1029.00      0.00000
      1030.00      0.00000
      1031.00      0.00000
      1032.00      0.00000
      1033.00      0.00000
      1034.00      0.00000
      1035.00      0.00000
      1036.00      0.00000
      1037.00      0.00000
      1038.00      0.00000
      1039.00      0.00000
      1040.00      0.00000
      1041.00      0.00000
      1042.00      0.00000
      1043.00      0.00000
      1044.00      0.00000
      1045.00      0.00000
      1046.00      0.00000
      1047.00      0.00000
      1048.00      0.00000
      1049.00      0.00000
      1050.00      0.00000
      1051.00      0.00000
      1052.00      0.00000
      1053.00      0.00000
      1054.00      0.00000
      1055.00      0.00000
      1056.00      0.00000
      1057.00      0.00000
      1058.00      0.00000
      1059.00      0.00000
      1060.00      0.00000
      1061.00      0.00000
      1062.00      0.00000
      1063.00      0.00000
      1064.00      0.00000
      1065.00      0.00000
      1066.00      0.00000
      1067.00      0.00000
      1068.00      0.00000
      1069.00      0.00000
      1070.00      0.00000
      1071.00      0.00000
      1072.00      0.00000
      1073.00      0.00000
      1074.00      0.00000
      1075.00      0.00000
      1076.00      0.00000
      1077.00      0.00000
      1078.00      0.00000
      1079.00      0.00000
      1080.00      0.00000
      1081.00      0.00000
      1082.00      0.00000
      1083.00      0.00000
      1084.00      0.00000
      1085.00      0.00000
      1086.00      0.00000
      1087.00      0.00000
      1088.00      0.00000
      1089.00      0.00000
      1090.00      0.00000
      1091.00      0.00000
      1092.00      0.00000
      1093.00      0.00000
      1094.00      0.00000
      1095.00      0.00000
      1096.00      0.00000
      1097.00      0.00000
      1098.00      0.00000
      1099.00      0.00000
      1100.00      0.00000
      1101.00      0.00000
      1102.00      0.00000
      1103.00      0.00000
      1104.00      0.00000
      1105.00      0.00000
      1106.00      0.00000
      1107.00      0.00000
      1108.00      0.00000
      1109.00      0.00000
      1110.00      0.00000
      1111.00      0.00000
      1112.00      0.00000
      1113.00      0.00000
      1114.00      0.00000
      1115.00      0.00000
      1116.00      0.00000
      1117.00      0.00000
      1118.00      0.00000
      1119.00      0.00000
      1120.00      0.00000
      1121.00      0.00000
